Project Name : Project Name
Sample Name : Sample Name
Measurement No : 1
Measurement Time : 10/13/2021   10:46:40

Pixel   Wavelength(nm)    Intensity
   1         284.37        40
   2         284.73        37
   3         285.08        34
   4         285.44        35
   5         285.80        37
   6         286.15        36
   7         286.51        42
   8         286.86        39
   9         287.22        33
  10         287.58        37
  11         287.93        35
  12         288.29        35
  13         288.64        37
  14         289.00        31
  15         289.36        42
  16         289.71        36
  17         290.07        36
  18         290.43        38
  19         290.78        35
  20         291.14        36
  21         291.50        38
  22         291.85        40
  23         292.21        35
  24         292.57        41
  25         292.93        34
  26         293.28        40
  27         293.64        36
  28         294.00        39
  29         294.35        36
  30         294.71        42
  31         295.07        38
  32         295.43        29
  33         295.78        39
  34         296.14        41
  35         296.50        42
  36         296.86        35
  37         297.22        41
  38         297.57        39
  39         297.93        34
  40         298.29        37
  41         298.65        36
  42         299.01        41
  43         299.36        33
  44         299.72        32
  45         300.08        32
  46         300.44        36
  47         300.80        37
  48         301.16        31
  49         301.51        32
  50         301.87        34
  51         302.23        38
  52         302.59        37
  53         302.95        36
  54         303.31        34
  55         303.67        34
  56         304.03        35
  57         304.39        34
  58         304.74        36
  59         305.10        37
  60         305.46        38
  61         305.82        33
  62         306.18        32
  63         306.54        35
  64         306.90        36
  65         307.26        37
  66         307.62        33
  67         307.98        32
  68         308.34        28
  69         308.70        38
  70         309.06        39
  71         309.42        37
  72         309.78        37
  73         310.14        41
  74         310.50        34
  75         310.86        31
  76         311.22        34
  77         311.58        38
  78         311.94        38
  79         312.30        39
  80         312.66        38
  81         313.02        40
  82         313.38        38
  83         313.74        37
  84         314.11        38
  85         314.47        40
  86         314.83        50
  87         315.19        39
  88         315.55        38
  89         315.91        37
  90         316.27        37
  91         316.63        35
  92         316.99        34
  93         317.36        45
  94         317.72        35
  95         318.08        39
  96         318.44        35
  97         318.80        45
  98         319.16        36
  99         319.52        37
 100         319.89        40
 101         320.25        43
 102         320.61        38
 103         320.97        43
 104         321.33        39
 105         321.70        36
 106         322.06        43
 107         322.42        46
 108         322.78        43
 109         323.14        42
 110         323.51        43
 111         323.87        37
 112         324.23        45
 113         324.59        41
 114         324.96        41
 115         325.32        37
 116         325.68        42
 117         326.05        44
 118         326.41        42
 119         326.77        41
 120         327.13        46
 121         327.50        48
 122         327.86        41
 123         328.22        42
 124         328.59        41
 125         328.95        38
 126         329.31        45
 127         329.68        37
 128         330.04        42
 129         330.40        42
 130         330.77        42
 131         331.13        45
 132         331.49        44
 133         331.86        44
 134         332.22        42
 135         332.59        43
 136         332.95        47
 137         333.31        47
 138         333.68        43
 139         334.04        45
 140         334.41        44
 141         334.77        41
 142         335.14        44
 143         335.50        47
 144         335.86        42
 145         336.23        38
 146         336.59        39
 147         336.96        46
 148         337.32        46
 149         337.69        46
 150         338.05        46
 151         338.42        42
 152         338.78        39
 153         339.15        44
 154         339.51        49
 155         339.88        49
 156         340.24        39
 157         340.61        38
 158         340.97        41
 159         341.34        44
 160         341.70        39
 161         342.07        41
 162         342.43        43
 163         342.80        49
 164         343.17        39
 165         343.53        46
 166         343.90        49
 167         344.26        40
 168         344.63        45
 169         344.99        40
 170         345.36        43
 171         345.73        45
 172         346.09        36
 173         346.46        40
 174         346.82        41
 175         347.19        42
 176         347.56        38
 177         347.92        42
 178         348.29        42
 179         348.66        46
 180         349.02        37
 181         349.39        36
 182         349.76        44
 183         350.12        42
 184         350.49        40
 185         350.86        39
 186         351.22        41
 187         351.59        38
 188         351.96        42
 189         352.33        40
 190         352.69        41
 191         353.06        35
 192         353.43        42
 193         353.79        38
 194         354.16        36
 195         354.53        35
 196         354.90        37
 197         355.26        36
 198         355.63        38
 199         356.00        42
 200         356.37        40
 201         356.74        35
 202         357.10        44
 203         357.47        39
 204         357.84        34
 205         358.21        39
 206         358.57        38
 207         358.94        39
 208         359.31        37
 209         359.68        34
 210         360.05        34
 211         360.42        41
 212         360.78        34
 213         361.15        35
 214         361.52        38
 215         361.89        40
 216         362.26        37
 217         362.63        35
 218         363.00        37
 219         363.37        35
 220         363.73        33
 221         364.10        42
 222         364.47        37
 223         364.84        37
 224         365.21        37
 225         365.58        36
 226         365.95        35
 227         366.32        39
 228         366.69        35
 229         367.06        35
 230         367.43        40
 231         367.80        34
 232         368.17        35
 233         368.54        38
 234         368.90        37
 235         369.27        32
 236         369.64        29
 237         370.01        34
 238         370.38        34
 239         370.75        37
 240         371.12        31
 241         371.49        40
 242         371.86        30
 243         372.23        33
 244         372.61        36
 245         372.98        39
 246         373.35        33
 247         373.72        35
 248         374.09        41
 249         374.46        32
 250         374.83        33
 251         375.20        35
 252         375.57        36
 253         375.94        40
 254         376.31        36
 255         376.68        36
 256         377.05        34
 257         377.42        33
 258         377.79        36
 259         378.17        33
 260         378.54        29
 261         378.91        35
 262         379.28        30
 263         379.65        27
 264         380.02        32
 265         380.39        36
 266         380.77        33
 267         381.14        36
 268         381.51        35
 269         381.88        40
 270         382.25        35
 271         382.62        36
 272         383.00        34
 273         383.37        41
 274         383.74        38
 275         384.11        31
 276         384.48        35
 277         384.86        36
 278         385.23        38
 279         385.60        43
 280         385.97        35
 281         386.35        36
 282         386.72        31
 283         387.09        43
 284         387.46        37
 285         387.84        38
 286         388.21        32
 287         388.58        34
 288         388.95        33
 289         389.33        45
 290         389.70        48
 291         390.07        36
 292         390.44        34
 293         390.82        35
 294         391.19        36
 295         391.56        39
 296         391.94        37
 297         392.31        38
 298         392.68        37
 299         393.06        44
 300         393.43        35
 301         393.80        35
 302         394.18        40
 303         394.55        36
 304         394.92        40
 305         395.30        42
 306         395.67        36
 307         396.05        37
 308         396.42        41
 309         396.79        38
 310         397.17        44
 311         397.54        42
 312         397.92        40
 313         398.29        39
 314         398.66        43
 315         399.04        39
 316         399.41        43
 317         399.79        43
 318         400.16        43
 319         400.54        40
 320         400.91        39
 321         401.28        37
 322         401.66        39
 323         402.03        42
 324         402.41        40
 325         402.78        46
 326         403.16        35
 327         403.53        39
 328         403.91        43
 329         404.28        42
 330         404.66        40
 331         405.03        37
 332         405.41        45
 333         405.78        38
 334         406.16        40
 335         406.53        45
 336         406.91        43
 337         407.29        47
 338         407.66        43
 339         408.04        42
 340         408.41        45
 341         408.79        47
 342         409.16        45
 343         409.54        44
 344         409.92        37
 345         410.29        41
 346         410.67        40
 347         411.04        45
 348         411.42        39
 349         411.79        39
 350         412.17        43
 351         412.55        39
 352         412.92        37
 353         413.30        38
 354         413.68        42
 355         414.05        38
 356         414.43        48
 357         414.81        47
 358         415.18        42
 359         415.56        45
 360         415.94        43
 361         416.31        42
 362         416.69        40
 363         417.07        43
 364         417.44        41
 365         417.82        43
 366         418.20        44
 367         418.57        46
 368         418.95        43
 369         419.33        39
 370         419.71        44
 371         420.08        37
 372         420.46        36
 373         420.84        42
 374         421.21        41
 375         421.59        44
 376         421.97        37
 377         422.35        45
 378         422.72        40
 379         423.10        39
 380         423.48        45
 381         423.86        42
 382         424.24        40
 383         424.61        39
 384         424.99        44
 385         425.37        38
 386         425.75        43
 387         426.13        46
 388         426.50        41
 389         426.88        37
 390         427.26        38
 391         427.64        40
 392         428.02        41
 393         428.40        37
 394         428.77        43
 395         429.15        40
 396         429.53        36
 397         429.91        38
 398         430.29        43
 399         430.67        43
 400         431.05        38
 401         431.42        32
 402         431.80        37
 403         432.18        41
 404         432.56        31
 405         432.94        42
 406         433.32        41
 407         433.70        35
 408         434.08        36
 409         434.46        40
 410         434.84        41
 411         435.22        40
 412         435.60        39
 413         435.98        39
 414         436.35        38
 415         436.73        41
 416         437.11        40
 417         437.49        36
 418         437.87        36
 419         438.25        38
 420         438.63        38
 421         439.01        41
 422         439.39        37
 423         439.77        34
 424         440.15        35
 425         440.53        39
 426         440.91        37
 427         441.29        35
 428         441.67        40
 429         442.05        38
 430         442.43        30
 431         442.81        36
 432         443.19        41
 433         443.58        37
 434         443.96        33
 435         444.34        33
 436         444.72        32
 437         445.10        35
 438         445.48        39
 439         445.86        33
 440         446.24        36
 441         446.62        37
 442         447.00        36
 443         447.38        38
 444         447.76        33
 445         448.15        38
 446         448.53        34
 447         448.91        34
 448         449.29        37
 449         449.67        42
 450         450.05        37
 451         450.43        40
 452         450.81        39
 453         451.20        35
 454         451.58        32
 455         451.96        40
 456         452.34        34
 457         452.72        39
 458         453.10        32
 459         453.49        36
 460         453.87        33
 461         454.25        40
 462         454.63        40
 463         455.01        35
 464         455.40        36
 465         455.78        34
 466         456.16        35
 467         456.54        37
 468         456.92        42
 469         457.31        39
 470         457.69        41
 471         458.07        38
 472         458.45        47
 473         458.84        41
 474         459.22        37
 475         459.60        42
 476         459.98        44
 477         460.37        41
 478         460.75        38
 479         461.13        42
 480         461.52        40
 481         461.90        39
 482         462.28        44
 483         462.66        45
 484         463.05        40
 485         463.43        42
 486         463.81        35
 487         464.20        41
 488         464.58        41
 489         464.96        45
 490         465.35        48
 491         465.73        46
 492         466.11        39
 493         466.50        48
 494         466.88        42
 495         467.27        40
 496         467.65        38
 497         468.03        44
 498         468.42        45
 499         468.80        41
 500         469.18        44
 501         469.57        37
 502         469.95        40
 503         470.34        47
 504         470.72        40
 505         471.10        39
 506         471.49        40
 507         471.87        44
 508         472.26        39
 509         472.64        46
 510         473.03        39
 511         473.41        41
 512         473.79        44
 513         474.18        43
 514         474.56        43
 515         474.95        42
 516         475.33        43
 517         475.72        42
 518         476.10        46
 519         476.49        47
 520         476.87        48
 521         477.26        41
 522         477.64        39
 523         478.03        38
 524         478.41        42
 525         478.80        40
 526         479.18        41
 527         479.57        40
 528         479.95        41
 529         480.34        45
 530         480.72        41
 531         481.11        43
 532         481.49        45
 533         481.88        43
 534         482.26        41
 535         482.65        40
 536         483.04        39
 537         483.42        45
 538         483.81        42
 539         484.19        38
 540         484.58        39
 541         484.96        44
 542         485.35        45
 543         485.74        42
 544         486.12        39
 545         486.51        37
 546         486.89        41
 547         487.28        44
 548         487.67        38
 549         488.05        39
 550         488.44        42
 551         488.83        48
 552         489.21        39
 553         489.60        38
 554         489.99        38
 555         490.37        38
 556         490.76        39
 557         491.14        40
 558         491.53        42
 559         491.92        37
 560         492.31        41
 561         492.69        37
 562         493.08        42
 563         493.47        38
 564         493.85        39
 565         494.24        39
 566         494.63        37
 567         495.01        35
 568         495.40        37
 569         495.79        32
 570         496.18        41
 571         496.56        40
 572         496.95        43
 573         497.34        38
 574         497.72        35
 575         498.11        36
 576         498.50        33
 577         498.89        40
 578         499.28        41
 579         499.66        39
 580         500.05        39
 581         500.44        42
 582         500.83        32
 583         501.21        32
 584         501.60        34
 585         501.99        41
 586         502.38        44
 587         502.77        33
 588         503.15        36
 589         503.54        36
 590         503.93        41
 591         504.32        36
 592         504.71        39
 593         505.09        35
 594         505.48        37
 595         505.87        38
 596         506.26        34
 597         506.65        41
 598         507.04        40
 599         507.43        34
 600         507.81        38
 601         508.20        36
 602         508.59        34
 603         508.98        33
 604         509.37        33
 605         509.76        32
 606         510.15        37
 607         510.54        37
 608         510.93        37
 609         511.31        37
 610         511.70        37
 611         512.09        37
 612         512.48        34
 613         512.87        37
 614         513.26        39
 615         513.65        35
 616         514.04        37
 617         514.43        35
 618         514.82        32
 619         515.21        37
 620         515.60        41
 621         515.99        38
 622         516.38        41
 623         516.77        40
 624         517.16        33
 625         517.55        33
 626         517.94        38
 627         518.33        28
 628         518.72        32
 629         519.11        31
 630         519.50        37
 631         519.89        35
 632         520.28        32
 633         520.67        34
 634         521.06        31
 635         521.45        36
 636         521.84        47
 637         522.23        31
 638         522.62        39
 639         523.01        37
 640         523.40        36
 641         523.79        41
 642         524.18        40
 643         524.57        29
 644         524.96        34
 645         525.35        34
 646         525.74        36
 647         526.13        33
 648         526.52        39
 649         526.91        35
 650         527.31        33
 651         527.70        35
 652         528.09        39
 653         528.48        38
 654         528.87        31
 655         529.26        35
 656         529.65        30
 657         530.04        47
 658         530.43        39
 659         530.83        37
 660         531.22        39
 661         531.61        36
