Project Name : Project Name
Sample Name : Sample Name
Measurement No : 1
Measurement Time : 10/13/2021   10:43:23

Pixel   Wavelength(nm)    Intensity
   1         284.37        33
   2         284.73        40
   3         285.08        38
   4         285.44        42
   5         285.80        44
   6         286.15        39
   7         286.51        41
   8         286.86        39
   9         287.22        37
  10         287.58        44
  11         287.93        37
  12         288.29        41
  13         288.64        40
  14         289.00        40
  15         289.36        42
  16         289.71        33
  17         290.07        37
  18         290.43        34
  19         290.78        39
  20         291.14        41
  21         291.50        39
  22         291.85        37
  23         292.21        41
  24         292.57        41
  25         292.93        41
  26         293.28        38
  27         293.64        40
  28         294.00        42
  29         294.35        44
  30         294.71        36
  31         295.07        37
  32         295.43        40
  33         295.78        41
  34         296.14        43
  35         296.50        40
  36         296.86        42
  37         297.22        44
  38         297.57        34
  39         297.93        44
  40         298.29        38
  41         298.65        43
  42         299.01        40
  43         299.36        43
  44         299.72        41
  45         300.08        44
  46         300.44        44
  47         300.80        44
  48         301.16        44
  49         301.51        43
  50         301.87        41
  51         302.23        48
  52         302.59        42
  53         302.95        44
  54         303.31        40
  55         303.67        39
  56         304.03        41
  57         304.39        37
  58         304.74        47
  59         305.10        42
  60         305.46        40
  61         305.82        45
  62         306.18        53
  63         306.54        44
  64         306.90        39
  65         307.26        39
  66         307.62        42
  67         307.98        39
  68         308.34        48
  69         308.70        41
  70         309.06        46
  71         309.42        42
  72         309.78        42
  73         310.14        40
  74         310.50        45
  75         310.86        44
  76         311.22        43
  77         311.58        51
  78         311.94        43
  79         312.30        43
  80         312.66        38
  81         313.02        40
  82         313.38        44
  83         313.74        45
  84         314.11        43
  85         314.47        46
  86         314.83        55
  87         315.19        44
  88         315.55        45
  89         315.91        46
  90         316.27        41
  91         316.63        44
  92         316.99        46
  93         317.36        48
  94         317.72        49
  95         318.08        42
  96         318.44        37
  97         318.80        44
  98         319.16        47
  99         319.52        45
 100         319.89        39
 101         320.25        42
 102         320.61        40
 103         320.97        45
 104         321.33        39
 105         321.70        42
 106         322.06        45
 107         322.42        50
 108         322.78        43
 109         323.14        45
 110         323.51        45
 111         323.87        46
 112         324.23        46
 113         324.59        44
 114         324.96        45
 115         325.32        48
 116         325.68        40
 117         326.05        44
 118         326.41        44
 119         326.77        38
 120         327.13        48
 121         327.50        42
 122         327.86        40
 123         328.22        46
 124         328.59        39
 125         328.95        41
 126         329.31        44
 127         329.68        39
 128         330.04        43
 129         330.40        41
 130         330.77        44
 131         331.13        39
 132         331.49        38
 133         331.86        40
 134         332.22        42
 135         332.59        44
 136         332.95        41
 137         333.31        40
 138         333.68        39
 139         334.04        38
 140         334.41        43
 141         334.77        44
 142         335.14        42
 143         335.50        40
 144         335.86        40
 145         336.23        43
 146         336.59        40
 147         336.96        37
 148         337.32        39
 149         337.69        46
 150         338.05        34
 151         338.42        39
 152         338.78        37
 153         339.15        41
 154         339.51        42
 155         339.88        37
 156         340.24        50
 157         340.61        42
 158         340.97        42
 159         341.34        40
 160         341.70        39
 161         342.07        45
 162         342.43        39
 163         342.80        41
 164         343.17        36
 165         343.53        42
 166         343.90        40
 167         344.26        40
 168         344.63        36
 169         344.99        44
 170         345.36        41
 171         345.73        39
 172         346.09        40
 173         346.46        36
 174         346.82        37
 175         347.19        37
 176         347.56        37
 177         347.92        41
 178         348.29        38
 179         348.66        42
 180         349.02        41
 181         349.39        38
 182         349.76        36
 183         350.12        43
 184         350.49        42
 185         350.86        39
 186         351.22        42
 187         351.59        38
 188         351.96        43
 189         352.33        43
 190         352.69        35
 191         353.06        34
 192         353.43        40
 193         353.79        37
 194         354.16        37
 195         354.53        42
 196         354.90        33
 197         355.26        39
 198         355.63        40
 199         356.00        37
 200         356.37        35
 201         356.74        39
 202         357.10        37
 203         357.47        41
 204         357.84        38
 205         358.21        41
 206         358.57        41
 207         358.94        39
 208         359.31        39
 209         359.68        37
 210         360.05        39
 211         360.42        39
 212         360.78        42
 213         361.15        37
 214         361.52        38
 215         361.89        37
 216         362.26        39
 217         362.63        40
 218         363.00        36
 219         363.37        36
 220         363.73        36
 221         364.10        42
 222         364.47        40
 223         364.84        38
 224         365.21        44
 225         365.58        42
 226         365.95        37
 227         366.32        43
 228         366.69        39
 229         367.06        40
 230         367.43        36
 231         367.80        41
 232         368.17        40
 233         368.54        41
 234         368.90        41
 235         369.27        41
 236         369.64        43
 237         370.01        44
 238         370.38        45
 239         370.75        44
 240         371.12        33
 241         371.49        38
 242         371.86        39
 243         372.23        40
 244         372.61        40
 245         372.98        40
 246         373.35        40
 247         373.72        39
 248         374.09        52
 249         374.46        42
 250         374.83        43
 251         375.20        43
 252         375.57        39
 253         375.94        43
 254         376.31        43
 255         376.68        43
 256         377.05        47
 257         377.42        43
 258         377.79        43
 259         378.17        44
 260         378.54        41
 261         378.91        46
 262         379.28        45
 263         379.65        41
 264         380.02        49
 265         380.39        45
 266         380.77        44
 267         381.14        48
 268         381.51        37
 269         381.88        40
 270         382.25        43
 271         382.62        43
 272         383.00        44
 273         383.37        40
 274         383.74        41
 275         384.11        43
 276         384.48        43
 277         384.86        46
 278         385.23        47
 279         385.60        44
 280         385.97        47
 281         386.35        46
 282         386.72        44
 283         387.09        49
 284         387.46        42
 285         387.84        45
 286         388.21        47
 287         388.58        43
 288         388.95        47
 289         389.33        48
 290         389.70        51
 291         390.07        44
 292         390.44        42
 293         390.82        42
 294         391.19        43
 295         391.56        43
 296         391.94        47
 297         392.31        42
 298         392.68        42
 299         393.06        48
 300         393.43        40
 301         393.80        46
 302         394.18        48
 303         394.55        44
 304         394.92        48
 305         395.30        41
 306         395.67        49
 307         396.05        37
 308         396.42        41
 309         396.79        46
 310         397.17        40
 311         397.54        41
 312         397.92        47
 313         398.29        46
 314         398.66        39
 315         399.04        41
 316         399.41        42
 317         399.79        44
 318         400.16        42
 319         400.54        41
 320         400.91        47
 321         401.28        42
 322         401.66        43
 323         402.03        45
 324         402.41        40
 325         402.78        44
 326         403.16        42
 327         403.53        46
 328         403.91        47
 329         404.28        47
 330         404.66        43
 331         405.03        39
 332         405.41        43
 333         405.78        38
 334         406.16        43
 335         406.53        36
 336         406.91        45
 337         407.29        42
 338         407.66        38
 339         408.04        44
 340         408.41        44
 341         408.79        42
 342         409.16        43
 343         409.54        45
 344         409.92        43
 345         410.29        39
 346         410.67        41
 347         411.04        46
 348         411.42        39
 349         411.79        42
 350         412.17        43
 351         412.55        37
 352         412.92        39
 353         413.30        42
 354         413.68        41
 355         414.05        41
 356         414.43        44
 357         414.81        41
 358         415.18        36
 359         415.56        40
 360         415.94        34
 361         416.31        34
 362         416.69        38
 363         417.07        43
 364         417.44        43
 365         417.82        41
 366         418.20        41
 367         418.57        36
 368         418.95        42
 369         419.33        37
 370         419.71        41
 371         420.08        41
 372         420.46        38
 373         420.84        40
 374         421.21        43
 375         421.59        40
 376         421.97        38
 377         422.35        47
 378         422.72        40
 379         423.10        34
 380         423.48        36
 381         423.86        41
 382         424.24        33
 383         424.61        34
 384         424.99        41
 385         425.37        33
 386         425.75        32
 387         426.13        43
 388         426.50        39
 389         426.88        40
 390         427.26        37
 391         427.64        39
 392         428.02        38
 393         428.40        35
 394         428.77        37
 395         429.15        34
 396         429.53        39
 397         429.91        44
 398         430.29        45
 399         430.67        46
 400         431.05        51
 401         431.42        37
 402         431.80        40
 403         432.18        42
 404         432.56        38
 405         432.94        46
 406         433.32        40
 407         433.70        37
 408         434.08        44
 409         434.46        44
 410         434.84        44
 411         435.22        39
 412         435.60        45
 413         435.98        42
 414         436.35        44
 415         436.73        49
 416         437.11        42
 417         437.49        45
 418         437.87        49
 419         438.25        41
 420         438.63        38
 421         439.01        45
 422         439.39        47
 423         439.77        44
 424         440.15        48
 425         440.53        43
 426         440.91        45
 427         441.29        52
 428         441.67        43
 429         442.05        58
 430         442.43        51
 431         442.81        45
 432         443.19        53
 433         443.58        51
 434         443.96        49
 435         444.34        50
 436         444.72        49
 437         445.10        52
 438         445.48        54
 439         445.86        53
 440         446.24        55
 441         446.62        51
 442         447.00        55
 443         447.38        54
 444         447.76        58
 445         448.15        58
 446         448.53        57
 447         448.91        57
 448         449.29        60
 449         449.67        63
 450         450.05        61
 451         450.43        57
 452         450.81        63
 453         451.20        63
 454         451.58        61
 455         451.96        69
 456         452.34        68
 457         452.72        68
 458         453.10        67
 459         453.49        72
 460         453.87        66
 461         454.25        76
 462         454.63        75
 463         455.01        74
 464         455.40        79
 465         455.78        80
 466         456.16        93
 467         456.54        85
 468         456.92        79
 469         457.31        84
 470         457.69        82
 471         458.07        79
 472         458.45        87
 473         458.84        92
 474         459.22        97
 475         459.60       106
 476         459.98       107
 477         460.37        95
 478         460.75        95
 479         461.13       106
 480         461.52        99
 481         461.90       113
 482         462.28       108
 483         462.66        98
 484         463.05       107
 485         463.43       113
 486         463.81       118
 487         464.20       104
 488         464.58       122
 489         464.96       125
 490         465.35       111
 491         465.73       123
 492         466.11       133
 493         466.50       135
 494         466.88       132
 495         467.27       131
 496         467.65       145
 497         468.03       141
 498         468.42       141
 499         468.80       152
 500         469.18       149
 501         469.57       148
 502         469.95       166
 503         470.34       169
 504         470.72       173
 505         471.10       177
 506         471.49       168
 507         471.87       179
 508         472.26       181
 509         472.64       182
 510         473.03       188
 511         473.41       193
 512         473.79       194
 513         474.18       212
 514         474.56       216
 515         474.95       215
 516         475.33       225
 517         475.72       224
 518         476.10       232
 519         476.49       227
 520         476.87       241
 521         477.26       245
 522         477.64       255
 523         478.03       270
 524         478.41       263
 525         478.80       272
 526         479.18       272
 527         479.57       273
 528         479.95       298
 529         480.34       292
 530         480.72       305
 531         481.11       310
 532         481.49       313
 533         481.88       318
 534         482.26       330
 535         482.65       334
 536         483.04       329
 537         483.42       332
 538         483.81       353
 539         484.19       360
 540         484.58       357
 541         484.96       371
 542         485.35       372
 543         485.74       387
 544         486.12       367
 545         486.51       388
 546         486.89       388
 547         487.28       387
 548         487.67       399
 549         488.05       398
 550         488.44       411
 551         488.83       393
 552         489.21       402
 553         489.60       409
 554         489.99       414
 555         490.37       419
 556         490.76       417
 557         491.14       413
 558         491.53       425
 559         491.92       419
 560         492.31       421
 561         492.69       416
 562         493.08       433
 563         493.47       427
 564         493.85       425
 565         494.24       417
 566         494.63       431
 567         495.01       423
 568         495.40       449
 569         495.79       430
 570         496.18       427
 571         496.56       434
 572         496.95       432
 573         497.34       443
 574         497.72       451
 575         498.11       451
 576         498.50       449
 577         498.89       451
 578         499.28       449
 579         499.66       456
 580         500.05       457
 581         500.44       461
 582         500.83       469
 583         501.21       469
 584         501.60       468
 585         501.99       482
 586         502.38       492
 587         502.77       485
 588         503.15       496
 589         503.54       491
 590         503.93       500
 591         504.32       506
 592         504.71       519
 593         505.09       524
 594         505.48       521
 595         505.87       532
 596         506.26       536
 597         506.65       528
 598         507.04       563
 599         507.43       546
 600         507.81       561
 601         508.20       581
 602         508.59       579
 603         508.98       620
 604         509.37       611
 605         509.76       620
 606         510.15       636
 607         510.54       629
 608         510.93       661
 609         511.31       656
 610         511.70       645
 611         512.09       682
 612         512.48       668
 613         512.87       704
 614         513.26       697
 615         513.65       712
 616         514.04       735
 617         514.43       745
 618         514.82       761
 619         515.21       771
 620         515.60       785
 621         515.99       800
 622         516.38       809
 623         516.77       820
 624         517.16       831
 625         517.55       857
 626         517.94       849
 627         518.33       858
 628         518.72       870
 629         519.11       876
 630         519.50       896
 631         519.89       923
 632         520.28       909
 633         520.67       931
 634         521.06       931
 635         521.45       941
 636         521.84       979
 637         522.23       978
 638         522.62       963
 639         523.01       971
 640         523.40       988
 641         523.79      1000
 642         524.18      1002
 643         524.57      1037
 644         524.96      1042
 645         525.35      1029
 646         525.74      1039
 647         526.13      1046
 648         526.52      1077
 649         526.91      1055
 650         527.31      1064
 651         527.70      1095
 652         528.09      1077
 653         528.48      1094
 654         528.87      1123
 655         529.26      1109
 656         529.65      1138
 657         530.04      1136
 658         530.43      1136
 659         530.83      1181
 660         531.22      1153
 661         531.61      1209
